B.E.(eV)           Raw Intensity       Peak Sum            Background          Peak 1              Peak 2              Peak 3              Peak 4              difference
 295                21.75 
 294.95             21.25 
 294.9              17 
 294.85             20 
 294.8              20.25 
 294.75             23 
 294.7              21.5                21.88056            20.54171            21.04108            20.93925            20.78139            20.74397           -0.3805637 
 294.65             22.25               21.84944            20.48738            20.99771            20.89227            20.72985            20.69174            0.4005585 
 294.6              20.75               21.81894            20.43304            20.95469            20.8455             20.67834            20.63953           -1.068941 
 294.55             19.75               21.7891             20.37868            20.91203            20.79891            20.62687            20.58734           -2.039103 
 294.5              19                  21.75992            20.32429            20.86973            20.75251            20.57541            20.53514           -2.759918 
 294.45             24                  21.73141            20.26985            20.82778            20.70628            20.52395            20.48293            2.268593 
 294.4              24.25               21.70369            20.21542            20.78629            20.66032            20.47257            20.43078            2.546309 
 294.35             17.75               21.67677            20.16102            20.74527            20.61461            20.42126            20.37868           -3.926765 
 294.3              16.25               21.65063            20.10656            20.70469            20.56911            20.36995            20.32656           -5.400629 
 294.25             17.25               21.62526            20.05202            20.66451            20.52378            20.31862            20.2744            -4.375256 
 294.2              21                  21.60072            19.99742            20.62479            20.47868            20.26728            20.22222           -0.6007195 
 294.15             23.75               21.57713            19.9428             20.58563            20.43384            20.216              20.17006            2.172873 
 294.1              21                  21.55452            19.8882             20.54706            20.38932            20.16478            20.11796           -0.5545197 
 294.05             21                  21.53295            19.83359            20.5091             20.3451             20.11362            20.06589           -0.5329533 
 294                22.25               21.51243            19.77896            20.47178            20.30118            20.06251            20.01384            0.7375698 
 293.95             18                  21.49305            19.72433            20.43515            20.2576             20.01147            19.96184           -3.493053 
 293.9              17.5                21.47484            19.66966            20.39921            20.21433            19.96045            19.90984           -3.974842 
 293.85             21.25               21.45781            19.61493            20.36399            20.17135            19.90944            19.85782           -0.2078075 
 293.8              21.5                21.44211            19.5602             20.32959            20.12876            19.8585             19.80585            5.788803E-02 
 293.75             21.25               21.42778            19.50546            20.29605            20.08655            19.80762            19.75392           -0.1777821 
 293.7              23.25               21.41492            19.45071            20.26344            20.04475            19.75682            19.70202            1.835083 
 293.65             21                  21.40365            19.39598            20.23186            20.00341            19.70611            19.6502            -0.4036522 
 293.6              23                  21.39399            19.34124            20.20132            19.9625             19.65547            19.59842            1.606009 
 293.55             26.5                21.38612            19.28653            20.17196            19.92209            19.60494            19.54672            5.113878 
 293.5              21.25               21.38012            19.23188            20.14384            19.88223            19.55455            19.49513           -0.1301193 
 293.45             16.75               21.37607            19.17723            20.11702            19.84288            19.50425            19.44359           -4.626066 
 293.4              22.5                21.37405            19.12252            20.09154            19.80403            19.45398            19.39205            1.12595 
 293.35             23.25               21.37421            19.06782            20.06754            19.76573            19.40381            19.34058            1.875792 
 293.3              22                  21.37675            19.01314            20.04517            19.72806            19.35376            19.28919            0.623251 
 293.25             25.75               21.38174            18.95848            20.02449            19.69102            19.30382            19.23788            4.368258 
 293.2              24.25               21.38942            18.90389            20.00569            19.65468            19.25403            19.18669            2.86058 
 293.15             23.75               21.39996            18.84932            19.98889            19.61906            19.20439            19.13559            2.35004 
 293.1              24                  21.41347            18.7948             19.9742             19.58419            19.15488            19.0846             2.586531 
 293.05             23                  21.43021            18.74031            19.9618             19.55012            19.10552            19.03371            1.569788 
 293                22.75               21.4503             18.68585            19.95179            19.51685            19.0563             18.98292            1.299704 
 292.95             22.75               21.47397            18.63142            19.94437            19.48443            19.00722            18.93222            1.276033 
 292.9              23                  21.50151            18.57701            19.93973            19.45292            18.95828            18.88162            1.498489 
 292.85             23.5                21.53306            18.52263            19.93801            19.42235            18.90948            18.83111            1.966944 
 292.8              21                  21.56898            18.46829            19.93948            19.3928             18.86085            18.78072           -0.5689774 
 292.75             19.25               21.6094             18.41396            19.94424            19.36426            18.81235            18.73042           -2.359398 
 292.7              22                  21.65462            18.3596             19.95252            19.33678            18.76396            18.68017            0.3453789 
 292.65             19                  21.70505            18.30527            19.96462            19.31049            18.71573            18.63002           -2.705053 
 292.6              21.5                21.76082            18.25092            19.98066            19.28537            18.66762            18.57994           -0.2608223 
 292.55             23.25               21.82243            18.19659            20.001              19.26157            18.61968            18.52996            1.427572 
 292.5              22.5                21.89008            18.1423             20.02581            19.23915            18.57191            18.48011            0.6099205 
 292.45             21.75               21.96419            18.08804            20.05539            19.21821            18.52432            18.43037           -0.2141933 
 292.4              22.25               22.0452             18.03379            20.09005            19.19886            18.47692            18.38074            0.2047997 
 292.35             25.5                22.13333            17.97957            20.12996            19.18116            18.4297             18.33124            3.366673 
 292.3              21.25               22.22918            17.92543            20.17553            19.16531            18.38272            18.28191           -0.9791794 
 292.25             27                  22.33292            17.8713             20.22688            19.15135            18.33592            18.23269            4.667076 
 292.2              24.75               22.44514            17.81727            20.2844             19.1395             18.2894             18.18366            2.304855 
 292.15             23.25               22.56635            17.7633             20.3484             19.12991            18.24312            18.1348             0.683651 
 292.1              24.5                22.69674            17.70937            20.41899            19.12269            18.19707            18.08609            1.803255 
 292.05             22                  22.83704            17.6555             20.49661            19.11808            18.15129            18.03756           -0.837038 
 292                26.75               22.98742            17.60167            20.58131            19.11621            18.10573            17.98917            3.762579 
 291.95             25.5                23.14854            17.54793            20.67346            19.1174             18.06047            17.94098            2.35146 
 291.9              24                  23.32101            17.49426            20.77337            19.12191            18.01551            17.893              0.6789875 
 291.85             22.5                23.50503            17.44065            20.88103            19.12993            17.97083            17.8452            -1.005028 
 291.8              19.5                23.70136            17.38709            20.9968             19.14184            17.92642            17.79757           -4.201359 
 291.75             21                  23.91015            17.33352            21.12057            19.15785            17.88224            17.75006           -2.910152 
 291.7              26.5                24.13208            17.27999            21.25257            19.17841            17.83834            17.70272            2.367922 
 291.65             25                  24.36786            17.22654            21.39305            19.20404            17.79478            17.65561            0.6321411 
 291.6              28.75               24.61761            17.17317            21.54175            19.23509            17.75156            17.60872            4.132393 
 291.55             25.25               24.88219            17.11992            21.6989             19.27221            17.70875            17.5621             0.3678131 
 291.5              23.5                25.16159            17.06676            21.86408            19.31579            17.66629            17.51571           -1.661587 
 291.45             27.25               25.45634            17.01365            22.03713            19.36645            17.62418            17.46953            1.793663 
 291.4              23.5                25.76705            16.96066            22.21792            19.42497            17.58249            17.42363           -2.26705 
 291.35             25.75               26.09346            16.90772            22.40565            19.49185            17.54117            17.37795           -0.3434639 
 291.3              26                  26.43623            16.85487            22.60002            19.56801            17.50027            17.33254           -0.4362278 
 291.25             26.75               26.7949             16.80212            22.79995            19.65411            17.4598             17.28739           -0.0449028 
 291.2              20.75               27.16964            16.74947            23.00465            19.75109            17.41978            17.24253           -6.419638 
 291.15             30.25               27.56039            16.69685            23.21302            19.85987            17.38017            17.19789            2.689611 
 291.1              31.75               27.9663             16.64438            23.42345            19.98133            17.34108            17.15359            3.783703 
 291.05             26                  28.38732            16.59209            23.63465            20.11671            17.30256            17.10967           -2.38732 
 291                26.25               28.82196            16.53989            23.84432            20.26673            17.26454            17.06604           -2.571964 
 290.95             31                  29.26944            16.48779            24.05046            20.43259            17.22704            17.02274            1.730556 
 290.9              30                  29.72885            16.43586            24.25085            20.6156             17.19016            16.97982            0.2711525 
 290.85             28.75               30.19803            16.38408            24.44254            20.81658            17.15389            16.93728           -1.448029 
 290.8              33.25               30.67591            16.33244            24.62295            21.03694            17.11823            16.89511            2.574089 
 290.75             33.75               31.16006            16.28099            24.78886            21.27754            17.08327            16.85338            2.589941 
 290.7              29.75               31.64886            16.22975            24.93735            21.53964            17.04902            16.81211           -1.898863 
 290.65             34.25               32.14064            16.17865            25.06542            21.82447            17.01547            16.77125            2.109356 
 290.6              29.25               32.6329             16.12778            25.16997            22.1327             16.9827             16.73087           -3.382904 
 290.55             30.25               33.12449            16.07704            25.24841            22.46561            16.95066            16.69091           -2.874493 
 290.5              38.25               33.61325            16.02646            25.29824            22.8236             16.91939            16.65141            4.636749 
 290.45             35.5                34.09839            15.97615            25.31773            23.20764            16.88902            16.61246            1.401608 
 290.4              30                  34.57938            15.92607            25.30548            23.61848            16.85956            16.57407           -4.579376 
 290.35             37                  35.055              15.87615            25.26062            24.05574            16.83095            16.53615            1.945 
 290.3              41.25               35.52589            15.82648            25.18314            24.52003            16.80334            16.49882            5.72411 
 290.25             37.25               35.99162            15.77712            25.07371            25.01036            16.77677            16.46213            1.258377 
 290.2              39                  36.45279            15.728              24.93343            25.52605            16.75126            16.42606            2.547215 
 290.15             40.25               36.91004            15.67917            24.76402            26.06602            16.72687            16.39064            3.339962 
 290.1              35.5                37.36289            15.63063            24.56787            26.62737            16.70364            16.3559            -1.862888 
 290.05             37                  37.81153            15.58233            24.34737            27.20776            16.68158            16.32181           -0.8115311 
 290                41.75               38.2543             15.53428            24.10562            27.80243            16.66072            16.28838            3.495705 
 289.95             40.25               38.68952            15.48655            23.84563            28.40668            16.64118            16.2557             1.560482 
 289.9              32.25               39.11421            15.43912            23.5703             29.01448            16.62301            16.22377           -6.864208 
 289.85             38                  39.52302            15.39188            23.28284            29.61719            16.60613            16.1925            -1.523018 
 289.8              38.5                39.91042            15.34492            22.98594            30.20652            16.59071            16.16201           -1.410416 
 289.75             37                  40.2682             15.29823            22.68261            30.77124            16.57677            16.13228           -3.268204 
 289.7              44.75               40.58762            15.25181            22.3752             31.30012            16.56437            16.10335            4.162376 
 289.65             38.75               40.85887            15.20574            22.06587            31.78116            16.55372            16.07533           -2.108871 
 289.6              45.25               41.07084            15.15995            21.75686            32.20093            16.54475            16.04816            4.179161 
 289.55             44                  41.21337            15.11454            21.44966            32.54768            16.53767            16.02197            2.786629 
 289.5              45                  41.2765             15.06947            21.14604            32.80962            16.53251            15.99674            3.723495 
 289.45             37.25               41.25231            15.02477            20.84711            32.9776             16.52939            15.97252           -4.002308 
 289.4              43.75               41.13492            14.98034            20.55364            33.0447             16.52833            15.94926            2.615082 
 289.35             37.75               40.92179            14.93626            20.26686            33.0072             16.52946            15.92705           -3.171791 
 289.3              41                  40.61321            14.89246            19.98705            32.86479            16.53287            15.90587            0.3867874 
 289.25             43.5                40.21349            14.84897            19.71505            32.62092            16.53866            15.88577            3.286507 
 289.2              35                  39.72953            14.80583            19.45114            32.28205            16.54702            15.86682           -4.729534 
 289.15             32.25               39.17049            14.76294            19.19534            31.85698            16.558              15.84897           -6.920486 
 289.1              40.75               38.54841            14.72025            18.94805            31.35725            16.57166            15.8322             2.201591 
 289.05             41.25               37.87529            14.67788            18.70921            30.79471            16.58832            15.81669            3.37471 
 289                43                  37.16485            14.63584            18.47909            30.18271            16.6081             15.80246            5.835148 
 288.95             38                  36.42942            14.59414            18.25755            29.53345            16.63125            15.78959            1.57058 
 288.9              36.25               35.68037            14.55273            18.04432            28.8582             16.65795            15.77809            0.5696297 
 288.85             33.75               34.92933            14.51158            17.83947            28.16833            16.68832            15.76795           -1.179333 
 288.8              32.25               34.18484            14.47066            17.6426             27.47233            16.72266            15.75923           -1.934845 
 288.75             36.25               33.45584            14.42996            17.4537             26.77892            16.76116            15.75194            2.794159 
 288.7              36                  32.74864            14.38952            17.27248            26.0943             16.80419            15.74621            3.251358 
 288.65             32                  32.06833            14.34934            17.09866            25.4234             16.85217            15.74213           -6.833267E-02 
 288.6              33.25               31.41999            14.30938            16.93208            24.77107            16.90531            15.73967            1.830008 
 288.55             26.5                30.80629            14.26964            16.77236            24.13972            16.96416            15.73897           -4.306288 
 288.5              31.25               30.23041            14.23005            16.61929            23.53229            17.029              15.73998            1.019592 
 288.45             25.75               29.69397            14.19067            16.47259            22.95003            17.10047            15.74288           -3.94397 
 288.4              29.75               29.19802            14.15142            16.33186            22.39354            17.17918            15.7477             0.5519753 
 288.35             33                  28.74418            14.11236            16.197              21.86399            17.2657             15.75456            4.255816 
 288.3              29.75               28.33267            14.07352            16.06767            21.36094            17.36098            15.76365            1.417332 
 288.25             28.75               27.96437            14.03488            15.94367            20.88469            17.46565            15.77499            0.7856255 
 288.2              26.5                27.6394             13.99641            15.82466            20.43448            17.58074            15.78873           -1.139397 
 288.15             30                  27.35786            13.95809            15.71032            20.00942            17.70737            15.80501            2.642143 
 288.1              25.5                27.12037            13.91996            15.60053            19.60921            17.84657            15.82394           -1.620365 
 288.05             28                  26.92694            13.88198            15.49491            19.23243            17.99981            15.84571            1.073059 
 288                20.75               26.77819            13.84416            15.39333            18.87854            18.16833            15.87045           -6.028187 
 287.95             27                  26.67442            13.80642            15.29542            18.54616            18.35378            15.8983             0.3255844 
 287.9              28                  26.61636            13.76883            15.20103            18.23412            18.55813            15.92958            1.38364 
 287.85             23.5                26.60489            13.73142            15.11002            17.94164            18.78304            15.96446           -3.104891 
 287.8              28                  26.64102            13.69413            15.02208            17.66723            19.03087            16.00322            1.358984 
 287.75             25.75               26.72594            13.657              14.93713            17.41011            19.30359            16.04612           -0.9759369 
 287.7              22.5                26.86112            13.62003            14.85493            17.16901            19.60379            16.09347           -4.36112 
 287.65             28.25               27.04839            13.58315            14.77525            16.9427             19.93425            16.14565            1.201612 
 287.6              27.5                27.28947            13.54646            14.69805            16.73043            20.29736            16.20301            0.2105274 
 287.55             28.25               27.58688            13.50993            14.62313            16.53099            20.69649            16.26608            0.6631165 
 287.5              30.75               27.94262            13.47359            14.55041            16.34361            21.13414            16.33523            2.807381 
 287.45             26.25               28.35951            13.43745            14.47975            16.16733            21.61371            16.41109           -2.109514 
 287.4              30.75               28.84064            13.40148            14.41096            16.00115            22.13869            16.49428            1.909357 
 287.35             28                  29.38839            13.36571            14.34402            15.84448            22.71166            16.58537           -1.38839 
 287.3              37                  30.00652            13.33012            14.27876            15.69637            23.33654            16.68522            6.993477 
 287.25             36                  30.69752            13.29483            14.21522            15.55639            24.01578            16.79463            5.302479 
 287.2              31.5                31.46492            13.25982            14.15328            15.42379            24.75276            16.91456            3.507614E-02 
 287.15             38.5                32.31236            13.22503            14.09279            15.29787            25.55072            17.04608            6.187645 
 287.1              30.5                33.24181            13.19056            14.03378            15.17827            26.41125            17.1902            -2.741806 
 287.05             38.75               34.25706            13.15631            13.97605            15.06429            27.33738            17.34826            4.492943 
 287                34.25               35.35925            13.12237            13.91968            14.95567            28.32953            17.52148           -1.109245 
 286.95             37                  36.55064            13.08869            13.86452            14.85188            29.38894            17.71139            0.4493561 
 286.9              37.75               37.833              13.05532            13.81053            14.75253            30.51612            17.91977           -0.083004 
 286.85             39.75               39.20454            13.02225            13.75771            14.65738            31.70812            18.14808            0.5454636 
 286.8              40.75               40.66533            12.98952            13.70601            14.56605            32.96333            18.39849            8.467484E-02 
 286.75             41                  42.21003            12.95713            13.65541            14.47835            34.27499            18.67267           -1.21003 
 286.7              52                  43.83366            12.9251             13.60586            14.394              35.63621            18.97288            8.166336 
 286.65             45.25               45.52869            12.89355            13.55747            14.31286            37.0373             19.30172           -0.2786865 
 286.6              46.75               47.28073            12.86242            13.51011            14.23472            38.46217            19.66097           -0.5307312 
 286.55             44.25               49.07585            12.83171            13.46377            14.15934            39.89429            20.05356           -4.825848 
 286.5              50.75               50.89138            12.80139            13.4184             14.08658            41.30914            20.48143           -0.1413803 
 286.45             51                  52.70374            12.77156            13.37405            14.01634            42.68058            20.94744           -1.703735 
 286.4              47.75               54.48519            12.7422             13.33067            13.94845            43.97815            21.45452           -6.735188 
 286.35             57.25               56.20141            12.71329            13.28823            13.88281            45.16571            22.00453            1.048592 
 286.3              56.25               57.82085            12.68494            13.24681            13.81938            46.20867            22.60081           -1.570847 
 286.25             62.25               59.30811            12.65714            13.20638            13.75806            47.07004            23.24505            2.941895 
 286.2              62.5                60.63396            12.62997            13.16699            13.69884            47.71806            23.93997            1.866043 
 286.15             56.75               61.77449            12.60343            13.12863            13.6416             48.12637            24.68816           -5.024494 
 286.1              66.5                62.71198            12.57744            13.09122            13.58623            48.27642            25.49043            3.788021 
 286.05             66.75               63.44157            12.55214            13.05485            13.53275            48.16106            26.34933            3.308434 
 286                66.75               63.96704            12.52753            13.01952            13.48112            47.78423            27.26475            2.782959 
 285.95             59.5                64.30387            12.5036             12.98522            13.43126            47.16068            28.23751           -4.803871 
 285.9              66                  64.47548            12.48027            12.95182            13.38302            46.31378            29.26767            1.524521 
 285.85             62.25               64.51102            12.45761            12.91941            13.33644            45.27552            30.35248           -2.261017 
 285.8              66.25               64.44259            12.43559            12.88793            13.2914             44.07962            31.49041            1.807411 
 285.75             63.25               64.3021             12.41425            12.85741            13.24794            42.76384            32.67566           -1.052101 
 285.7              63                  64.11829            12.39355            12.82781            13.20595            41.36266            33.90252           -1.118294 
 285.65             68.75               63.91471            12.37349            12.79911            13.16538            39.90762            35.16307            4.835293 
 285.6              64.5                63.70875            12.35415            12.77138            13.1263             38.42908            36.44445            0.7912521 
 285.55             68.25               63.5098             12.33547            12.74455            13.08858            36.94937            37.73372            4.740204 
 285.5              67                  63.32004            12.3175             12.71866            13.05227            35.49002            39.01159            3.679962 
 285.45             60.75               63.13372            12.30023            12.69369            13.0173             34.06565            40.25775           -2.383724 
 285.4              68.5                62.93811            12.28356            12.66955            12.98356            32.68716            41.44853            5.561886 
 285.35             62.25               62.71516            12.26761            12.64633            12.95114            31.36493            42.5556            -0.4651642 
 285.3              69                  62.44176            12.2523             12.62395            12.9199             30.10321            43.55159            6.558243 
 285.25             63.25               62.09312            12.23771            12.60248            12.88994            28.90738            44.40644            1.156879 
 285.2              57.5                61.64362            12.22376            12.58184            12.86114            27.77858            45.09333           -4.143623 
 285.15             54.5                61.06956            12.21039            12.56196            12.8334             26.71678            45.58859           -6.569565 
 285.1              62.5                60.35277            12.19755            12.54279            12.80668            25.72277            45.87319            2.147228 
 285.05             53.75               59.48003            12.18536            12.52442            12.78104            24.7942             45.93644           -5.730034 
 285                56                  58.44749            12.17369            12.50674            12.75638            23.93019            45.77525           -2.447495 
 284.95             53.25               57.25801            12.16257            12.48978            12.73268            23.12782            45.39546           -4.008011 
 284.9              56.5                55.92165            12.15198            12.47348            12.7099             22.38392            44.8103             0.5783539 
 284.85             48.5                54.45748            12.14196            12.4579             12.68806            21.6965             44.04089           -5.957478 
 284.8              55.5                52.8858             12.13239            12.44291            12.66705            21.06151            43.11149            2.614197 
 284.75             54.25               51.23352            12.12337            12.42862            12.64695            20.47663            42.05145            3.016479 
 284.7              53.25               49.52545            12.11489            12.41499            12.62772            19.93821            40.88921            3.724552 
 284.65             49.5                47.7855             12.10694            12.40201            12.60933            19.44277            39.65219            1.7145 
 284.6              50.5                46.03875            12.09946            12.38964            12.59174            18.98771            38.36803            4.461246 
 284.55             41.5                44.30334            12.09246            12.37786            12.57492            18.56945            37.05849           -2.803337 
 284.5              43.25               42.5983             12.08584            12.36658            12.55877            18.18542            35.74505            0.6516953 
 284.45             40.75               40.93641            12.07961            12.3558             12.5433             17.83259            34.44356           -0.1864128 
 284.4              40.75               39.32741            12.07375            12.3455             12.52844            17.5081             33.16663            1.422592 
 284.35             41.75               37.78122            12.06826            12.33567            12.51422            17.20983            31.92627            3.968784 
 284.3              42.5                36.30151            12.06314            12.32631            12.50061            16.93513            30.72887            6.19849 
 284.25             33.75               34.89363            12.0584             12.31744            12.48763            16.68216            29.5816            -1.143627 
 284.2              32                  33.55841            12.05395            12.30894            12.47516            16.44868            28.48747           -1.558414 
 284.15             30.25               32.29566            12.04974            12.30079            12.46316            16.23273            27.44822           -2.045658 
 284.1              32.75               31.10637            12.04577            12.29296            12.4516             16.03287            26.46626            1.643627 
 284.05             27                  29.98785            12.04206            12.28548            12.44051            15.84741            25.54065           -2.98785 
 284                29.75               28.93948            12.03854            12.27827            12.4298             15.67513            24.67191            0.8105202 
 283.95             29.25               27.95825            12.03525            12.27138            12.41952            15.51473            23.85837            1.291752 
 283.9              28                  27.04093            12.03217            12.26478            12.40963            15.36503            23.09801            0.9590721 
 283.85             26.5                26.18572            12.0293             12.25846            12.40013            15.22521            22.38982            0.3142834 
 283.8              25                  25.3885             12.02661            12.2524             12.39098            15.0942             21.73075           -0.3885002 
 283.75             27.5                24.64708            12.02409            12.24657            12.38217            14.97138            21.11923            2.852917 
 283.7              27                  23.95783            12.02176            12.24102            12.37371            14.85598            20.5524             3.042168 
 283.65             24                  23.31719            12.01962            12.23572            12.36559            14.74733            20.02742            0.6828117 
 283.6              25.75               22.72277            12.01764            12.23065            12.35778            14.64495            19.5423             3.027225 
 283.55             26.75               22.17082            12.01583            12.22581            12.35029            14.54827            19.09393            4.579182 
 283.5              23.75               21.65903            12.0142             12.22123            12.34312            14.45697            18.68033            2.090965 
 283.45             22                  21.18417            12.01273            12.21685            12.33624            14.37056            18.29871            0.8158302 
 283.4              18.25               20.7432             12.01138            12.21266            12.32962            14.28861            17.94646           -2.493198 
 283.35             22                  20.334              12.01012            12.20861            12.3232             14.21087            17.62167            1.666 
 283.3              20.75               19.95365            12.00898            12.20475            12.31704            14.13699            17.3218             0.7963524 
 283.25             20.25               19.60026            12.00795            12.20105            12.3111             14.0668             17.04515            0.6497421 
 283.2              18.75               19.27141            12.00702            12.19751            12.30539            14.00001            16.78958           -0.5214119 
 283.15             17.75               18.96489            12.00618            12.1941             12.29987            13.93635            16.55312           -1.214886 
 283.1              17.25               18.67915            12.00542            12.19083            12.29453            13.87569            16.33436           -1.42915 
 283.05             18.5                18.41212            12.00472            12.18766            12.28937            13.81777            16.13148            0.087883 
 283                15.75               18.16253            12.0041             12.18463            12.28439            13.76251            15.94331           -2.412529 
 282.95             16                  17.92872            12.00354            12.18169            12.27956            13.7097             15.76837           -1.928722 
 282.9              18.25               17.70923            12.00302            12.17885            12.27487            13.65917            15.60539            0.5407696 
 282.85             16                  17.50314            12.00258            12.17614            12.27035            13.61088            15.4535            -1.503139 
 282.8              13.5                17.30906            12.00219            12.17352            12.26598            13.56463            15.31151           -3.809061 
 282.75             13.75               17.1262             12.00182            12.17096            12.26171            13.52032            15.17868           -3.376202 
 282.7              11.25               16.95354            12.00148            12.16846            12.25756            13.47783            15.05412           -5.703543 
 282.65             17                  16.79013            12.00112            12.16599            12.25347            13.43702            14.93701            0.2098656 
 282.6              16.5                16.63551            12.00083            12.16363            12.24953            13.3979             14.82693           -0.1355133 
 282.55             12.75               16.48882            12.00059            12.16136            12.24572            13.36035            14.72317           -3.738823 
 282.5              15.5                16.34959            12.00037            12.15915            12.242              13.32428            14.62527           -0.8495941 
 282.45             15.25               16.21724            12.00018            12.15701            12.2384             13.28963            14.53275           -0.9672356 
 282.4              18.25               16.09117            12.00004            12.15495            12.23491            13.25631            14.44514            2.158827 
 282.35             14.5                15.97116            11.99998            12.153              12.23157            13.22434            14.36221           -1.471165 
 282.3              15.75               15.85661            11.99996            12.15112            12.22833            13.19356            14.28347           -0.1066122 
 282.25             12                  15.74731            11.99997            12.14932            12.2252             13.16398            14.20874           -3.747314 
 282.2              11                  15.64282            11.99999            12.14755            12.22214            13.13547            14.13764           -4.642819 
 282.15             11.5                15.54276            12                  12.1458             12.21913            13.10796            14.06987           -4.042757 
 282.1              12                  15.44698            12                  12.14407            12.21617            13.08143            14.00531           -3.446982 
 282.05             11.75 
 282                13.75 
 281.95             10.75 
 281.9              15 
 281.85             12.25 
 281.8              14.75 
 281.75             14.75 
 281.7              12.25 
 281.65             14.25 
 281.6              11.25 
 281.55             13.25 
 281.5              14.25 
 281.45             11.75 
 281.4              16.5 
 281.35             11.25 
 281.3              12.5 
 281.25             14.25 
 281.2              13 
 281.15             14 
 281.1              11.5 
 281.05             12.25 
 281                11 
 280.95             13 
 280.9              15.25 
 280.85             13 
 280.8              17.5 
 280.75             15.75 
 280.7              9.25 
 280.65             15.25 
 280.6              12.25 
 280.55             14 
 280.5              14.75 
 280.45             11.75 
 280.4              11.75 
 280.35             15.75 
 280.3              10.5 
 280.25             13.5 
 280.2              12.75 
 280.15             16.75 
 280.1              13 
 280.05             13.25 
 280                13 
